$SUMMARY
Experiment Type : Titration
Experiment Name : 070416_newatftest_dphs_70, Number : 2
Experiment Description : dphs_53ug/ml
Software Version : v2.02
Experiment start time : 04/16/2007  16:02:27
Excitation Wavelength : 296.0 nm.
Emission Wavelength   : 326.0 nm.
Signal PMT Setpoint : 603.9
QC PMT Setpoint     : 245.5
Signal PMT autoset  :  0.80
QC Correction is ENABLED
Dark Correction is DISABLED
Signal PMT Settling Time : 1000 ms
Chopper Settling Time : 500 ms
Temperature Setpoint  : 25.00 deg C
Ref. Temp. Setpoint   : 25.00 deg C
Temperature Offset    :  0.00 deg C
Temperature Dead Band :  0.25 deg C
Temp. Equillibration Time :  0.50 mins
Temp. Rate of Change  : 10.00 deg C/min
Left Syringe Size  : 500.000 ul
Right Syringe Size : 500.000 ul
Initial Titrant Concentration : 0
Syringe Titrant Concentration : 5.94
Initial Sample Concentration  : 1
Syringe Sample Concentration   : 0
Averaging Time       :   1.0 sec.
Concentration Schedule...
Target Concentration : 1.8    3    4
Concentration Step   : 0.1    0.1    0.1
Stir Time            :  5.00 40.00  5.00 mins.
Initial Cell Volume :   2.0 ml
Sample Volume : CONSTANT
Chopper CLOSED during Equillibration
Cell Minimum Volume :  1.00 ml
Cell Maximum Volume :  3.00 ml
Ex. Wavelength : 296.00 nm.
Ex. Bandwidth  :  6.40 nm.
Em. Wavelength : 326.00 nm.
Em. Bandwidth  :  6.40 nm.
Stir during measurments
Stir Speed Value : 11
Stir Delay Time  :  sec.
Data Set Path : \AVIV
Data Set save mask : 1701FF
Data Sets saved in this file :
Sample Signal
PMT Dark
PMT Dynode Voltage
QC Signal
QC Dynode
Samp. Temp.
Samp. Probe
Samp. El. Time
Samp. PMT Raw Sig
Ref. Sig.
Ref. Temp.
Ref. Probe
Ref. PMT Raw Sig
$ENDSUMMARY

$DATA
$MDCNAME:
$MDCDATA:0:23:1:2:3:4:20:21:22:41:42:43:45:56:58
 X  Sample_Signal  Samp._PMT_Raw_Sig.  PMT_Signal_(Dark)  PMT_Dynode  QC_Signal  QC_Dynode  Sample_Temp  Sample._Probe_Temp  Samp._Elapsed_Time  Reference_Signal  Reference_Temp  Ref._Probe_Temp  Ref._PMT_Raw_Sig.  Samp._Conc.  Inj._Vol._ul.
 0         3.91210    3.91210    0          604.33313  0.98787    244.93976  24.98712   -50.00000  4.50000    3.03571    24.98663   -50.00000  3.03831    1.00000    0         
 0.10000   3.89687    3.95972    0          604.32843  1.00380    244.93033  24.99695   -50.00000  330.35931  3.00312    24.98663   -50.00000  3.04375    0.98316    33.67003  
 0.20000   3.82248    3.84345    0          604.32391  0.99329    244.92548  24.99695   -50.00000  642.18628  2.94847    24.99653   -50.00000  2.96090    0.96633    34.24657  
 0.30000   3.76648    3.76025    0          604.32227  0.98624    244.92357  24.98712   -50.00000  954.01428  2.90418    24.99653   -50.00000  2.90101    0.94949    34.84321  
 0.40000   3.69765    3.73609    0          604.32056  0.99814    244.92513  24.99695   -50.00000  1265.84229  2.84906    24.98663   -50.00000  2.87143    0.93266    35.46099  
 0.50000   3.63184    3.66467    0          604.32367  0.99680    244.92224  24.98712   -50.00000  1577.81128  2.79351    24.98663   -50.00000  2.81756    0.91582    36.10109  
 0.60000   3.56394    3.59422    0          604.32251  0.99626    244.92352  24.98712   -50.00000  1889.77930  2.73815    24.98663   -50.00000  2.76121    0.89899    36.76471  
 0.70000   3.50529    3.54504    0          604.32288  0.99907    244.92267  24.97729   -50.00000  2201.74829  2.69391    24.98663   -50.00000  2.71801    0.88215    37.45318  
 0.80000   3.42430    3.44830    0          604.32776  0.99479    244.92273  24.99695   -50.00000  2513.85840  2.63122    24.98663   -50.00000  2.64707    0.86532    38.16794  
 0.90000   3.35675    3.38050    0          604.32550  0.99486    244.92632  24.99695   -50.00000  2825.96729  2.57905    24.99653   -50.00000  2.60495    0.84848    38.91050  
 1.00000   3.28408    3.30341    0          604.32312  0.99368    244.92284  24.99695   -50.00000  3138.07617  2.52395    24.98663   -50.00000  2.54008    0.83165    39.68254  
 1.10000   3.21678    3.24795    0          604.32727  0.99744    244.91739  24.99695   -50.00000  3450.18628  2.47080    24.98663   -50.00000  2.49355    0.81481    40.48583  
 1.20000   3.14747    3.15832    0          604.32190  0.99128    244.91646  24.99695   -50.00000  3762.29517  2.41542    24.99653   -50.00000  2.42422    0.79798    41.32231  
 1.30000   3.08378    3.07294    0          604.32593  0.98440    244.91982  24.99695   -50.00000  4074.54517  2.36130    25.01633   -50.00000  2.35044    0.78114    42.19410  
 1.40000   3.01938    3.05274    0          604.32507  0.99878    244.91885  24.99695   -50.00000  4410.01123  2.31765    24.98663   -50.00000  2.34830    0.76431    43.10345  
 1.50000   2.93867    2.95815    0          604.33350  0.99442    244.91765  24.99695   -50.00000  4722.42969  2.25292    24.98663   -50.00000  2.26965    0.74747    44.05286  
 1.60000   2.86952    2.87973    0          604.32733  0.99138    244.91646  24.99695   -50.00000  5034.84912  2.20451    24.98663   -50.00000  2.21159    0.73064    45.04504  
 1.70000   2.80412    2.79883    0          604.32538  0.98601    244.91797  24.98712   -50.00000  5347.26758  2.15117    24.98663   -50.00000  2.14580    0.71380    46.08295  
 1.80000   2.72822    2.70830    0          604.32904  0.98066    244.92168  24.99695   -50.00000  5659.68701  2.09403    24.98663   -50.00000  2.08638    0.69697    47.16981  
 1.90000   2.64964    2.62570    0          604.32660  0.97894    244.91765  25.00677   -50.00000  8072.29688  2.03488    24.99653   -50.00000  2.01863    0.68013    48.30918  
 2.00000   2.54041    2.49830    0          604.33398  0.97149    244.92163  24.99695   -50.00000  10484.28125  1.95166    24.98663   -50.00000  1.91895    0.66330    49.50495  
 2.10000   2.40487    2.32498    0          604.34113  0.95505    244.92194  24.99695   -50.00000  12896.23438  1.84505    24.98663   -50.00000  1.78150    0.64646    50.76142  
 2.20000   2.19124    2.17922    0          604.34357  0.98245    244.92590  24.99695   -50.00000  15308.18750  1.68407    24.98663   -50.00000  1.66688    0.62963    52.08333  
 2.30000   1.87383    1.83891    0          604.34552  0.96946    244.92805  24.98712   -50.00000  17720.38281  1.44384    24.98663   -50.00000  1.42246    0.61279    53.47594  
 2.40000   1.46005    1.42084    0          604.33984  0.96134    244.92149  24.98712   -50.00000  20156.24219  1.12467    24.98663   -50.00000  1.09383    0.59596    54.94506  
 2.50000   1.04425    1.02911    0          604.34412  0.97354    244.92363  24.99695   -50.00000  22568.77344  0.80391    24.98663   -50.00000  0.79193    0.57912    56.49718  
 2.60000   0.74107    0.72757    0          604.34637  0.96988    244.92696  24.99695   -50.00000  24981.44531  0.56780    24.98663   -50.00000  0.56212    0.56229    58.13954  
 2.70000   0.54805    0.54161    0          604.34656  0.97627    244.92392  24.98712   -50.00000  27394.11719  0.41343    24.98663   -50.00000  0.40603    0.54545    59.88024  
 2.80000   0.45323    0.45098    0          604.35107  0.98295    244.92885  24.98712   -50.00000  29806.92969  0.33990    24.99653   -50.00000  0.33635    0.52862    61.72840  
 2.90000   0.40446    0.40263    0          604.35602  0.98338    244.93376  24.99695   -50.00000  32219.88281  0.30087    24.99653   -50.00000  0.29783    0.51178    63.69427  
 3.00000   0.38036    0.36746    0          604.35876  0.95437    244.93568  25.00677   -50.00000  34632.83594  0.28183    24.98663   -50.00000  0.27228    0.49495    65.78947  
 3.10000   0.36366    0.35035    0          604.35925  0.95171    244.93340  24.98712   -50.00000  34945.78906  0.26883    24.96683   -50.00000  0.25961    0.47811    68.02721  
 3.20000   0.35546    0.35119    0          604.36072  0.97599    244.93666  24.98712   -50.00000  35282.07031  0.26184    24.97673   -50.00000  0.25846    0.46128    70.42254  
 3.30000   0.34509    0.33725    0          604.36108  0.96543    244.93709  25.00677   -50.00000  35595.02344  0.25422    24.98663   -50.00000  0.24845    0.44444    72.99270  
 3.40000   0.33935    0.33041    0          604.35992  0.96185    244.93645  24.99695   -50.00000  35908.11719  0.24942    24.99653   -50.00000  0.24231    0.42761    75.75758  
 3.50000   0.33205    0.32488    0          604.36121  0.96651    244.93524  24.99695   -50.00000  36221.35156  0.24303    25.01633   -50.00000  0.23736    0.41077    78.74016  
 3.60000   0.32493    0.31796    0          604.36035  0.96668    244.93639  25.00677   -50.00000  36534.72656  0.23707    24.98663   -50.00000  0.23160    0.39394    81.96721  
 3.70000   0.31746    0.30566    0          604.35834  0.95115    244.93732  24.98712   -50.00000  36848.24219  0.23164    24.98663   -50.00000  0.22310    0.37710    85.47009  
 3.80000   0.30914    0.30330    0          604.36206  0.96921    244.93567  24.99695   -50.00000  37181.57031  0.22529    24.98663   -50.00000  0.22127    0.36027    89.28571  
 3.90000   0.30352    0.29691    0          604.36084  0.96634    244.93594  24.99695   -50.00000  37495.08594  0.22036    24.98663   -50.00000  0.21484    0.34343    93.45795  
 4.00000   0.29589    0.28742    0          604.35895  0.95959    244.93617  24.98712   -50.00000  37808.88281  0.21516    24.97673   -50.00000  0.20860    0.32660    98.03922  
$ENDDATA

$CONFIGURATION
$EXPNAME:070416_newatftest_dphs_70 #2
$NDATAPOINTS:41
$VERSION:v2.02
$EXTYPE:2
$EXNAME:070416_newatftest_dphs_70
$EXDESC:dphs_53ug/ml
$EXNUMBER:2
$EXWL:296.000000
$EMWL:326.000000
$EXBW:6.400000
$EMBW:6.400000
$PMTHV:603.948364
$PMTTHV:75.000000
$QCHV:245.464783
$PMTAUTOSETVALUE:0.800000
$TEMPSP:25.000000
$TEMPREFSP:25.000000
$TEMPOFFSET:0.000000
$TEMPDB:0.250000
$TEMPET:0.500000
$TEMPROT:10.000000
$SAMPSYRVOL0:500.000000
$SAMPSYRVOL1:500.000000
$REFSYRVOL0:500.000000
$REFSYRVOL1:500.000000
$SAVEBITS:1507839
$SAVEBITS2:65
$STRINGENCY:4
$ERRORLEVEL:3
$KINSTART:0.000000
$KINEND:99999.000000
$KININTERVAL:10.000000
$KINAVETIME:1.000000
$KINEXWL:350.000000
$KINEMWL:397.000000
$KINEXBW:6.400000
$KINEMBW:6.400000
$TEMPSTART:5.000000
$TEMPEND:95.000000
$TEMPSTEP:1.000000
$TEMPSS:1
$TEMPAVETIME:1.000000
$TEMPCHOPCLOSE:1
$TEMPREVERSESCAN:0
$TEMPHOLDTIME
$TEMPRETURN:1
$TEMPEXWL:280.000000
$TEMPEMWL:350.000000
$TEMPEXBW:2.000000
$TEMPEMBW:2.000000
$EXSTART:290.000000
$EXEND:280.000000
$EXSTEP:1.000000
$EXAVETIME:1.000000
$EXEXBW:3.200000
$EXEMWL:280.000000
$EXEMBW:3.200000
$EMSTART:360.000000
$EMEND:350.000000
$EMSTEP:1.000000
$EMAVETIME:1.000000
$EMEMBW:3.200000
$EMEXWL:350.000000
$EMEXBW:3.200000
$SYEXSTART:290.000000
$SYEXEND:280.000000
$SYEXSTEP:1.000000
$SYEXBW:3.200000
$SYEMOFF:0.000000
$SYEMBW:3.200000
$SYAVETIME:1.000000
$PHEND:8.000000
$PHINTERVAL:0.500000
$PHAVETIME:0.500000
$PHSTIRTIME:0.500000
$PHMAXVOL:1800.000000
$PHEXWL:280.000000
$PHEMWL:350.000000
$PHEXBW:2.000000
$PHEMBW:2.000000
$PHDB:0.010000
$PHINCREASE:1.000000
$PHCELLVOL:1800.000000
$PHINITSYR:0         
$PHINITCELL:1e-006    
$NSCANS:1
$CONCINITTITRANT:0         
$CONCSYRTITRANT:5.94      
$CONCINITSAMPLE:1         
$CONCSYRSAMPLE:0         
$CONCCELLVOL:2.000000
$CONCTARGET0:1.8       
$CONCTARGET1:3         
$CONCTARGET2:4         
$CONCSTEP0:0.1       
$CONCSTEP1:0.1       
$CONCSTEP2:0.1       
$CONCSTIR1:5.000000
$CONCSTIR2:40.000000
$CONCSTIR3:5.000000
$CONCCHOPCLOSE:1
$CONCINCREASEVOL:0
$CONCCELLMAX:3.000000
$CONCCELLMIN:1.000000
$CONCEXWL:296.000000
$CONCEMWL:326.000000
$CONCEXBW:6.400000
$CONCEMBW:6.400000
$CONCAVETIME:1.000000
$CONCEQENABLE:0
$CONCEQDY:0.000050
$CONCEQMAXTIME:7200.000000
$CONCEQNSAMPLE:0
$CONCEQMEASTIME:120.000000
$STIRVALUE:11
$STIRDURING:1
$STIRDELAYTIME:0.100000
$ROTENABLE:1
$ROTSTIRTIME:0.100000
$ROTDESC1:
$ROTDESC2:
$ROTDESC3:
$ROTDESC4:
$ROTDESC5:
$QCCORRECT:1
$DARKCORRECT:0
$PMTSETTIME:1000
$CHOPSETTIME:500
$DSPATH:\AVIV
$ECOUNT:0
$COLLECT:0
$MDY:4:16:2007
$HMS:16:2:27
$SAMPSYRDESC1:
$SAMPSYRDESC2:
$REFSYRDESC1:
$REFSYRDESC2:
$GFACTOR:1
$DARK:0
$REFANDSAMP:1
$COLORTABLE:0:0:0:255
$COLORTABLE:1:0:255:0
$COLORTABLE:2:0:255:255
$COLORTABLE:3:255:0:0
$COLORTABLE:4:255:0:255
$COLORTABLE:5:255:255:0
$COLORÿÿÿÿÿÿÿÿÿÿÿÿÿÿÿÿÿÿÿÿÿÿÿÿÿÿÿÿÿÿÿÿÿÿÿÿÿÿÿÿÿÿÿÿÿÿÿÿÿÿÿÿÿÿÿÿÿÿÿÿÿÿÿÿÿÿÿÿÿÿÿÿÿÿÿÿÿÿÿÿÿÿÿÿÿÿÿÿÿÿÿÿÿÿÿÿÿÿÿÿÿÿÿÿÿÿÿÿÿÿÿÿÿÿÿÿÿÿÿÿÿÿÿÿÿÿÿÿÿÿÿÿÿÿÿÿÿÿÿÿÿÿÿÿÿÿÿÿÿÿÿÿÿÿÿÿÿÿÿÿÿÿÿÿÿÿÿÿÿÿÿÿÿÿÿÿÿÿÿÿÿÿÿÿÿÿÿÿÿÿÿÿÿÿÿÿÿÿÿÿÿÿÿÿÿÿÿÿÿÿÿÿÿÿÿÿÿÿÿÿÿÿÿÿÿÿÿÿÿÿÿÿÿÿÿÿÿÿÿÿÿÿÿÿÿÿÿÿÿÿÿÿÿÿÿÿÿÿÿÿÿÿÿÿÿÿÿÿÿÿÿÿÿÿÿÿÿÿÿÿÿÿÿÿÿÿÿÿÿÿÿÿÿÿÿÿÿÿÿÿÿÿÿÿÿÿÿÿÿÿÿÿÿÿÿÿÿÿÿÿÿÿÿÿÿÿÿÿÿÿÿÿÿÿÿÿÿÿÿÿÿÿÿÿÿÿÿÿÿÿÿÿÿÿÿÿÿÿÿÿÿÿÿÿÿÿÿÿÿÿÿÿÿÿÿÿÿÿÿÿÿÿÿÿÿÿÿÿÿÿÿÿÿÿÿÿÿÿÿÿÿÿÿÿÿÿÿÿÿÿÿÿÿÿÿÿÿÿÿÿÿÿÿÿÿÿÿÿÿÿÿÿÿÿÿÿÿÿÿÿÿÿÿÿÿÿÿÿÿÿÿÿÿÿÿÿÿÿÿÿÿÿÿÿÿÿÿÿÿÿÿÿÿÿÿÿÿÿÿÿÿÿÿÿÿÿÿÿÿÿÿÿÿÿÿÿÿÿÿÿÿÿÿÿÿÿÿÿÿÿÿÿÿÿÿÿÿÿÿÿÿÿÿÿÿÿÿÿÿÿÿÿÿÿÿÿÿÿÿÿÿÿÿÿÿÿÿÿÿÿÿÿÿÿÿÿÿÿÿÿÿÿÿÿÿÿÿÿÿÿÿÿÿÿÿÿÿÿÿÿÿÿÿÿÿÿÿÿÿÿÿÿÿÿÿÿÿÿÿÿÿÿÿÿÿÿÿÿÿÿÿÿÿÿÿÿÿÿÿÿÿÿÿÿÿÿÿÿÿÿÿÿÿÿÿÿÿÿÿÿÿÿÿÿÿÿÿÿÿÿÿÿÿÿÿÿÿÿÿÿÿÿÿÿÿÿÿÿÿÿÿÿÿÿÿÿÿÿÿÿÿÿÿÿÿÿÿÿÿÿÿÿÿÿÿÿÿÿÿÿÿÿÿÿÿÿÿÿÿÿÿÿÿÿÿÿÿÿÿÿÿÿÿÿÿÿÿÿÿÿÿÿÿÿÿÿÿÿÿÿÿÿÿÿÿÿÿÿÿÿÿÿÿÿÿÿÿÿÿÿÿÿÿÿÿÿÿÿÿÿÿÿÿÿÿÿÿÿÿÿÿÿÿÿÿÿÿÿÿÿÿÿÿÿÿÿÿÿÿÿÿÿÿÿÿÿÿÿÿÿÿÿÿÿÿÿÿÿÿÿÿÿÿÿÿÿÿÿÿÿÿÿÿÿÿÿÿÿÿÿÿÿÿÿÿÿÿÿÿÿÿÿÿÿÿÿÿÿÿÿÿÿÿÿÿÿÿÿÿÿÿÿÿÿÿÿÿÿÿÿÿÿÿÿÿÿÿÿÿÿÿÿÿÿÿÿÿÿÿÿÿÿÿÿÿÿÿÿÿÿÿÿÿÿÿÿÿÿÿÿÿÿÿÿÿÿÿÿÿÿÿÿÿÿÿÿÿÿÿÿÿÿÿÿÿÿÿÿÿÿÿÿÿÿÿÿÿÿÿÿÿÿÿÿÿÿÿÿÿÿÿÿÿÿÿÿÿÿÿÿÿÿÿÿÿÿÿÿÿÿÿÿÿÿÿÿÿÿÿÿÿÿÿÿÿÿÿÿÿÿÿÿÿÿÿÿÿÿÿÿÿÿÿÿÿÿÿÿÿÿÿÿÿÿÿÿÿÿÿÿÿÿÿÿÿÿÿÿÿÿÿÿÿÿÿÿÿÿÿÿÿÿÿÿÿÿÿÿÿÿÿÿÿÿÿÿÿÿÿÿÿÿÿÿÿÿÿÿÿÿÿÿÿÿÿÿÿÿÿÿÿÿÿÿÿÿÿÿÿÿÿÿÿÿÿÿÿÿÿÿÿÿÿÿÿÿÿÿ